File: Other original data/DIL/ExpDat_Sample-HNXSQ-27.csv
#EXPORTTYPE:       ,DATA ALL
#FILE:             ,样品2.ngb-dla
#FORMAT:           ,NETZSCH5
#FTYPE:            ,ANSI
#IDENTITY:         ,样品2
#DECIMAL:          ,POINT
#SEPARATOR:        ,COMMA
#MTYPE:            ,DIL
#INSTRUMENT:       ,NETZSCH DIL 402SE
#PROJECT:          ,
#DATE/TIME:        ,2024/7/11 15:50:59 (UTC+8)
#CORR. FILE:       ,Al2O3-5-2.ngb-cla
#TEMPCAL:          ,TCALZERO.TMX
#LABORATORY:       ,
#OPERATOR:         ,
#REMARK:           ,
#SAMPLE:           ,样品2
#SAMPLE LENGTH /mm:,11.905
#MATERIAL:         ,
#MEASMODE:         ,Standard Expansion
#PROTECTIVE MFC:   ,NITROGEN,250.0 ml/min
#M.RANGE /μm:      ,20000
#CORR. CODE:       ,080
#RANGE:            ,25°C/5.0(K/min)/1360°C
#SEGMENT:          ,S1/1
#SEG. 1:           ,25°C/5.0(K/min)/1360°C

##Temp./°C,Time/min,dL/Lo
  30.44100,  0.00000, 6.044947e-05
  34.94100,  2.59007,-3.449283e-05
  39.44100,  4.04395, 4.896905e-05
  43.94100,  5.05274, 1.156024e-04
  48.44100,  5.89425, 1.688381e-04
  52.94100,  6.65561, 2.077441e-04
  57.44100,  7.37288, 2.354290e-04
  61.94100,  8.07372, 2.537513e-04
  66.44100,  8.77308, 2.631124e-04
  70.94100,  9.48464, 2.647349e-04
  75.44100, 10.22116, 2.650877e-04
  79.94100, 10.99284, 2.602584e-04
  84.44100, 11.80278, 2.546336e-04
  88.94100, 12.65558, 2.513990e-04
  93.44100, 13.54678, 2.567439e-04
  97.94100, 14.47125, 2.653983e-04
 102.441, 15.41360, 2.811574e-04
 106.941, 16.36247, 2.731106e-04
 111.441, 17.30395, 3.004259e-04
 115.941, 18.23165, 3.337536e-04
 120.441, 19.14410, 3.658676e-04
 124.941, 20.04150, 4.025980e-04
 129.441, 20.92967, 4.368079e-04
 133.941, 21.81294, 4.701555e-04
 138.441, 22.69815, 5.019159e-04
 142.941, 23.58221, 5.356923e-04
 147.441, 24.47053, 5.684858e-04
 151.941, 25.36578, 6.025086e-04
 156.441, 26.26391, 6.338780e-04
 160.941, 27.16589, 6.687487e-04
 165.441, 28.06891, 7.033570e-04
 169.941, 28.97075, 7.384860e-04
 174.441, 29.87279, 7.739914e-04
 178.941, 30.77315, 8.072696e-04
 183.441, 31.67052, 8.428463e-04
 187.941, 32.56795, 8.790238e-04
 192.441, 33.46705, 9.147740e-04
 196.941, 34.36534, 9.498667e-04
 201.441, 35.26617, 9.869131e-04
 205.941, 36.16478, 1.021109e-03
 210.441, 37.06509, 1.059232e-03
 214.941, 37.96438, 1.094263e-03
 219.441, 38.86592, 1.127605e-03
 223.941, 39.76635, 1.160710e-03
 228.441, 40.66547, 1.194577e-03
 232.941, 41.56677, 1.227959e-03
 237.441, 42.46621, 1.259395e-03
 241.941, 43.36569, 1.289250e-03
 246.441, 44.26606, 1.319221e-03
 250.941, 45.16588, 1.350380e-03
 255.441, 46.06530, 1.380684e-03
 259.941, 46.96561, 1.407959e-03
 264.441, 47.86545, 1.435859e-03
 268.941, 48.76503, 1.463466e-03
 273.441, 49.66529, 1.494425e-03
 277.941, 50.56633, 1.523412e-03
 282.441, 51.46623, 1.551715e-03
 286.941, 52.36720, 1.577767e-03
 291.441, 53.26695, 1.603389e-03
 295.941, 54.16721, 1.630362e-03
 300.441, 55.06838, 1.655128e-03
 304.941, 55.96755, 1.680850e-03
 309.441, 56.86755, 1.706680e-03
 313.941, 57.76720, 1.731840e-03
 318.441, 58.66837, 1.759341e-03
 322.941, 59.56875, 1.784739e-03
 327.441, 60.46883, 1.809839e-03
 331.941, 61.36930, 1.834374e-03
 336.441, 62.26959, 1.860483e-03
 340.941, 63.17023, 1.886499e-03
 345.441, 64.07043, 1.912618e-03
 349.941, 64.97185, 1.938386e-03
 354.441, 65.87161, 1.961196e-03
 358.941, 66.77129, 1.989322e-03
 363.441, 67.67142, 2.015285e-03
 367.941, 68.57202, 2.041648e-03
 372.441, 69.47261, 2.069095e-03
 376.941, 70.37328, 2.093749e-03
 381.441, 71.27291, 2.120013e-03
 385.941, 72.17351, 2.147047e-03
 390.441, 73.07403, 2.174379e-03
 394.941, 73.97435, 2.202391e-03
 399.441, 74.87518, 2.230395e-03
 403.941, 75.77482, 2.260516e-03
 408.441, 76.67508, 2.289282e-03
 412.941, 77.57581, 2.318350e-03
 417.441, 78.47549, 2.347818e-03
 421.941, 79.37604, 2.378931e-03
 426.441, 80.27661, 2.409760e-03
 430.941, 81.17687, 2.440829e-03
 435.441, 82.07715, 2.474293e-03
 439.941, 82.97743, 2.507936e-03
 444.441, 83.87793, 2.541551e-03
 448.941, 84.77857, 2.573149e-03
 453.441, 85.67798, 2.606502e-03
 457.941, 86.57876, 2.639940e-03
 462.441, 87.47899, 2.676626e-03
 466.941, 88.37939, 2.713495e-03
 471.441, 89.27998, 2.749920e-03
 475.941, 90.17987, 2.788240e-03
 480.441, 91.08048, 2.827589e-03
 484.941, 91.98040, 2.864976e-03
 489.441, 92.88138, 2.906687e-03
 493.941, 93.78156, 2.946388e-03
 498.441, 94.68228, 2.989628e-03
 502.941, 95.58224, 3.031726e-03
 507.441, 96.48223, 3.077173e-03
 511.941, 97.38240, 3.120754e-03
 516.441, 98.28260, 3.169844e-03
 520.941, 99.18225, 3.217913e-03
 525.441,100.082, 3.269354e-03
 529.941,100.982, 3.322663e-03
 534.441,101.883, 3.376915e-03
 538.941,102.782, 3.434121e-03
 543.441,103.682, 3.490970e-03
 547.941,104.582, 3.555806e-03
 552.441,105.482, 3.623746e-03
 556.941,106.383, 3.692527e-03
 561.441,107.282, 3.765307e-03
 565.941,108.183, 3.836874e-03
 570.441,109.082, 3.908360e-03
 574.941,109.982, 3.964738e-03
 579.441,110.882, 4.007310e-03
 583.941,111.783, 4.044354e-03
 588.441,112.683, 4.075870e-03
 592.941,113.583, 4.099152e-03
 597.441,114.483, 4.118666e-03
 601.941,115.382, 4.136152e-03
 606.441,116.283, 4.150026e-03
 610.941,117.183, 4.162465e-03
 615.441,118.083, 4.175991e-03
 619.941,118.984, 4.185595e-03
 624.441,119.883, 4.200295e-03
 628.941,120.783, 4.211664e-03
 633.441,121.684, 4.220414e-03
 637.941,122.583, 4.232743e-03
 642.441,123.483, 4.241780e-03
 646.941,124.383, 4.257080e-03
 651.441,125.283, 4.262776e-03
 655.941,126.183, 4.268527e-03
 660.441,127.083, 4.280357e-03
 664.941,127.984, 4.288023e-03
 669.441,128.884, 4.298765e-03
 673.941,129.784, 4.308628e-03
 678.441,130.684, 4.316482e-03
 682.941,131.584, 4.326061e-03
 687.441,132.484, 4.338360e-03
 691.941,133.384, 4.346437e-03
 696.441,134.284, 4.356696e-03
 700.941,135.184, 4.363372e-03
 705.441,136.084, 4.373760e-03
 709.941,136.984, 4.382802e-03
 714.441,137.884, 4.388659e-03
 718.941,138.784, 4.399139e-03
 723.441,139.684, 4.410230e-03
 727.941,140.585, 4.432117e-03
 732.441,141.484, 4.448274e-03
 736.941,142.385, 4.458828e-03
 741.441,143.285, 4.472190e-03
 745.941,144.185, 4.485501e-03
 750.441,145.085, 4.495896e-03
 754.941,145.985, 4.505169e-03
 759.441,146.884, 4.513979e-03
 763.941,147.785, 4.524155e-03
 768.441,148.685, 4.536793e-03
 772.941,149.585, 4.550505e-03
 777.441,150.485, 4.564617e-03
 781.941,151.385, 4.578544e-03
 786.441,152.285, 4.592801e-03
 790.941,153.186, 4.590103e-03
 795.441,154.085, 4.602997e-03
 799.941,154.985, 4.616412e-03
 804.441,155.885, 4.630353e-03
 808.941,156.785, 4.642335e-03
 813.441,157.686, 4.653836e-03
 817.941,158.585, 4.667675e-03
 822.441,159.485, 4.678576e-03
 826.941,160.385, 4.691857e-03
 831.441,161.285, 4.709484e-03
 835.941,162.185, 4.720053e-03
 840.441,163.086, 4.734469e-03
 844.941,163.986, 4.747362e-03
 849.441,164.885, 4.755851e-03
 853.941,165.786, 4.761586e-03
 858.441,166.686, 4.770073e-03
 862.941,167.586, 4.781438e-03
 867.441,168.486, 4.792042e-03
 871.941,169.386, 4.803575e-03
 876.441,170.286, 4.817119e-03
 880.941,171.186, 4.828340e-03
 885.441,172.086, 4.839210e-03
 889.941,172.986, 4.849536e-03
 894.441,173.887, 4.859173e-03
 898.941,174.787, 4.866494e-03
 903.441,175.687, 4.874659e-03
 907.941,176.586, 4.882404e-03
 912.441,177.486, 4.891875e-03
 916.941,178.386, 4.901187e-03
 921.441,179.286, 4.912011e-03
 925.941,180.186, 4.918225e-03
 930.441,181.086, 4.925922e-03
 934.941,181.986, 4.934897e-03
 939.441,182.887, 4.943866e-03
 943.941,183.786, 4.950104e-03
 948.441,184.687, 4.957623e-03
 952.941,185.587, 4.964333e-03
 957.441,186.487, 4.970884e-03
 961.941,187.387, 4.976592e-03
 966.441,188.287, 4.983508e-03
 970.941,189.187, 4.990047e-03
 975.441,190.087, 4.998607e-03
 979.941,190.987, 5.002891e-03
 984.441,191.887, 5.010405e-03
 988.941,192.787, 5.018217e-03
 993.441,193.687, 5.024969e-03
 997.941,194.587, 5.031298e-03
1002.44,195.487, 5.036802e-03
1006.94,196.387, 5.045035e-03
1011.44,197.287, 5.052615e-03
1015.94,198.187, 5.057688e-03
1020.44,199.087, 5.060530e-03
1024.94,199.987, 5.061649e-03
1029.44,200.887, 5.067153e-03
1033.94,201.787, 5.072039e-03
1038.44,202.687, 5.078956e-03
1042.94,203.587, 5.085157e-03
1047.44,204.487, 5.092368e-03
1051.94,205.387, 5.097507e-03
1056.44,206.287, 5.099485e-03
1060.94,207.187, 5.105185e-03
1065.44,208.087, 5.111602e-03
1069.94,208.987, 5.118945e-03
1074.44,209.887, 5.127582e-03
1078.94,210.787, 5.141227e-03
1083.44,211.687, 5.158163e-03
1087.94,212.587, 5.174283e-03
1092.44,213.487, 5.193142e-03
1096.94,214.387, 5.213723e-03
1101.44,215.288, 5.236396e-03
1105.94,216.187, 5.255526e-03
1110.44,217.088, 5.278421e-03
1114.94,217.987, 5.299027e-03
1119.44,218.887, 5.321048e-03
1123.94,219.787, 5.344770e-03
1128.44,220.687, 5.372759e-03
1132.94,221.587, 5.395038e-03
1137.44,222.487, 5.422648e-03
1141.94,223.387, 5.447328e-03
1146.44,224.287, 5.469989e-03
1150.94,225.187, 5.491252e-03
1155.44,226.088, 5.510403e-03
1159.94,226.987, 5.530748e-03
1164.44,227.887, 5.548227e-03
1168.94,228.787, 5.564894e-03
1173.44,229.687, 5.581410e-03
1177.94,230.587, 5.594552e-03
1182.44,231.488, 5.610003e-03
1186.94,232.388, 5.621221e-03
1191.44,233.287, 5.635041e-03
1195.94,234.187, 5.646873e-03
1200.44,235.087, 5.662014e-03
1204.94,235.987, 5.673442e-03
1209.44,236.887, 5.683032e-03
1213.94,237.787, 5.693890e-03
1218.44,238.687, 5.704027e-03
1222.94,239.588, 5.717656e-03
1227.44,240.487, 5.730505e-03
1231.94,241.387, 5.740861e-03
1236.44,242.287, 5.757789e-03
1240.94,243.187, 5.777595e-03
1245.44,244.087, 5.796066e-03
1249.94,244.988, 5.817048e-03
1254.44,245.887, 5.843076e-03
1258.94,246.787, 5.876429e-03
1263.44,247.687, 5.908955e-03
1267.94,248.587, 5.952254e-03
1272.44,249.487, 6.011240e-03
1276.94,250.387, 6.088614e-03
1281.44,251.288, 6.195586e-03
1285.94,252.187, 6.332668e-03
1290.44,253.087, 6.512593e-03
1294.94,253.987, 6.746970e-03
1299.44,254.887, 7.092620e-03
1303.94,255.787, 7.585654e-03
1308.44,256.687, 8.333865e-03
1312.94,257.587, 9.556982e-03
1317.44,258.487, 1.154377e-02
1321.94,259.387, 1.425779e-02
1326.44,260.287, 1.668482e-02
1330.94,261.187, 1.804347e-02
1335.44,262.087, 1.826198e-02
1339.94,262.987, 1.754043e-02
1344.44,263.887, 1.645059e-02
1348.94,264.787, 1.496038e-02
1353.44,265.687, 1.314904e-02
1357.94,266.587, 1.092291e-02
1359.94,266.986, 9.976274e-03